File: [22-05-04] 22MayE02 MDM (Ag-SiO2-Ag)/20220504_FPcavity.csv
Baseline 100%T,,Baseline 0%T,,100T,,Baseline 100%T,,Baseline 0%T,,100T1,,Baseline 100%T,,Baseline 0%T,,100T_3,,sampleT,,sample2_T,,Baseline 100%T,,Baseline 0%T,,100R,,sample_R,,sample_bR,,
Wavelength (nm),%T,Wavelength (nm),%T,Wavelength (nm),%T,Wavelength (nm),%T,Wavelength (nm),%T,Wavelength (nm),%T,Wavelength (nm),%T,Wavelength (nm),%T,Wavelength (nm),%T,Wavelength (nm),%T,Wavelength (nm),%T,Wavelength (nm),%R,Wavelength (nm),%R,Wavelength (nm),%R,Wavelength (nm),%R,Wavelength (nm),%R,
1000,89.696,1000,0.00599506,1000,99.7199,1000,89.6326,1000,0.000840386,1000,99.9359,1000,89.6671,1000,0.0078054,1000,99.9764,1000,0.460433,1000,0.430599,1000,287.463,1000,0.0323803,1000,99.6818,1000,96.2207,1000,79.1462,
985,89.4184,985,0.00401209,985,100.307,985,89.6104,985,0.000760232,985,100.146,985,89.7876,985,0.00411503,985,99.9011,985,0.495807,985,0.467181,985,288.18,985,0.0355493,985,99.6193,985,96.0577,985,78.9508,
970,89.7737,970,0.00512033,970,99.9122,970,89.938,970,-0.0040718,970,99.8617,970,89.9258,970,0.0032066,970,99.903,970,0.542378,970,0.500731,970,288.722,970,0.0281933,970,99.6717,970,95.9642,970,78.8868,
955,89.9484,955,0.00594996,955,99.9733,955,89.9614,955,-0.00153726,955,100.083,955,89.9904,955,0.00702373,955,100.028,955,0.578996,955,0.533948,955,288.796,955,0.0357956,955,99.7026,955,95.9159,955,78.7394,
940,90.005,940,0.00802374,940,100.121,940,90.2274,940,0.00386335,940,100.032,940,90.2079,940,0.00721225,940,99.9237,940,0.631927,940,0.57774,940,289.233,940,0.0419417,940,99.6103,940,95.7021,940,78.5334,
925,90.0904,925,0.00630832,925,99.8344,925,90.043,925,0.00645223,925,99.989,925,90.2225,925,0.00282988,925,99.7961,925,0.689831,925,0.638098,925,288.646,925,0.0357352,925,99.7221,925,95.6538,925,78.3025,
910,89.8094,910,0.00824,910,100.258,910,90.0422,910,0.00469715,910,100.134,910,89.8537,910,0.00875872,910,100.278,910,0.75139,910,0.680096,910,288.332,910,0.0472284,910,99.6385,910,95.3864,910,77.7547,
895,89.6922,895,0.00757074,895,99.8682,895,89.7932,895,0.00629036,895,99.8838,895,89.9541,895,0.013012,895,99.6463,895,0.812245,895,0.745503,895,287.617,895,0.0471321,895,99.5779,895,95.1287,895,76.646,
880,89.2445,880,0.00694985,880,100.12,880,89.37,880,0.00696652,880,100.12,880,89.3023,880,0.00647516,880,100.258,880,0.910269,880,0.824589,880,286.247,880,0.0374229,880,99.1468,880,94.2752,880,72.8714,
865,88.986,865,0.00559634,865,99.9846,865,89.1752,865,0.0094956,865,99.9159,865,89.0762,865,0.00565104,865,99.9797,865,0.999361,865,0.906446,865,279.739,865,0.0350487,865,98.1129,865,92.1759,865,71.1902,
850,88.3611,850,0.00771024,850,100.108,850,88.6759,850,0.00834881,850,99.9856,850,88.7944,850,0.007698,850,99.8995,850,1.11287,850,1.00786,850,272.173,850,0.0417856,850,98.2816,850,91.2654,850,72.0763,
835,88.3641,835,0.00744624,835,100.038,835,88.6671,835,0.00600352,835,100.023,835,88.6369,835,0.0079416,835,100.038,835,1.23939,835,1.12676,835,270.142,835,0.0395173,835,98.221,835,90.765,835,72.5411,
820,88.0105,820,0.00669779,820,99.9314,820,88.5827,820,0.00725242,820,99.94,820,88.59,820,0.00643166,820,99.8994,820,1.39872,820,1.26623,820,270.082,820,0.0304953,820,98.0997,820,90.3832,820,72.8485,
805,87.96875,805,0.00548923,805,100.021,805,88.727,805,0.00821955,805,100.178,805,88.7618,805,0.00559946,805,100.023,805,1.57121,805,1.42217,805,270.995,805,0.0311775,805,98.1603,805,90.1917,805,72.7706,
790,74.0924,790,-0.00442415,790,100.05,790,74.3789,790,-0.00456057,790,99.9821,790,74.3123,790,-0.00406441,790,100.15,790,1.75552,790,1.58138,790,92.4586,790,0.00261798,790,99.8731,790,92.858,790,77.5652,
775,74.4663,775,-0.00446755,775,100.018,775,74.6634,775,-0.00553223,775,100.055,775,74.7482,775,-0.00405871,775,100.096,775,2.00281,775,1.79985,775,92.2801,775,0.00298716,775,99.9425,775,92.5367,775,77.5965,
760,74.7201,760,-0.00368044,760,100.152,760,75.1086,760,-0.00466542,760,99.934,760,75.0348,760,-0.00283479,760,100.013,760,2.31946,760,2.08068,760,92.4228,760,0.00341614,760,99.8517,760,91.8393,760,77.4351,
745,75.2934,745,-0.00389378,745,99.9045,745,75.4978,745,-0.00234621,745,100.06,745,75.4887,745,-0.00271671,745,100.122,745,2.70619,745,2.42588,745,92.3921,745,0.00350108,745,99.8511,745,91.2249,745,77.2841,
730,75.6304,730,-0.00362823,730,100.209,730,76.0796,730,-0.00311655,730,99.9301,730,76.0365,730,-0.003893,730,100.008,730,3.18779,730,2.85621,730,92.4039,730,0.00360726,730,99.8405,730,90.4559,730,76.9493,
715,76.1761,715,-0.00298431,715,99.9375,715,76.4071,715,-0.00376136,715,100.098,715,76.456,715,-0.00285845,715,100.071,715,3.81631,715,3.41645,715,92.6037,715,0.00423288,715,99.8289,715,89.378,715,76.3456,
700,76.5685,700,-0.00310932,700,100.123,700,76.9245,700,-0.00234144,700,100.041,700,76.9293,700,-0.00221244,700,99.9478,700,4.60848,700,4.11513,700,92.6284,700,0.0050799,700,99.8601,700,88.2079,700,75.5743,
685,76.903,685,-0.00221912,685,100.027,685,77.2668,685,-0.00209237,685,99.9259,685,77.2427,685,-0.00322541,685,100.111,685,5.66223,685,5.07027,685,92.9677,685,0.00544624,685,99.7549,685,86.5396,685,74.2397,
670,77.262,670,-0.00246946,670,99.9637,670,77.6634,670,-0.00272516,670,100.008,670,77.6355,670,-0.00221271,670,99.9742,670,7.08214,670,6.34113,670,93.1047,670,0.00512362,670,99.8571,670,84.5353,670,72.6439,
655,77.434,655,-0.00183256,655,100.181,655,77.7274,655,-0.00208609,655,100.031,655,77.7039,655,-0.0019836,655,100.171,655,9.02574,655,8.09229,655,93.4536,655,0.00656593,655,99.7864,655,81.7652,655,70.2873,
640,77.8138,640,-0.0022194,640,99.8518,640,78.0692,640,-0.00158848,640,100.082,640,78.0845,640,-0.00108798,640,100.106,640,11.7327,640,10.5624,640,93.8754,640,0.00683553,640,99.7639,640,78.045,640,67.005,
625,77.7429,625,-0.000122285,625,100.238,625,78.149,625,-0.000900917,625,100.055,625,78.1176,625,-0.00207641,625,100.041,625,15.6358,625,14.135,625,93.676,625,0.00753805,625,99.845,625,72.9204,625,62.4073,
610,77.876,610,-0.0013865,610,99.9296,610,78.0952,610,-0.00083986,610,100.006,610,78.1664,610,-0.00165511,610,100.05,610,21.2863,610,19.3745,610,93.8232,610,0.00742317,610,99.7198,610,65.5552,610,55.6634,
595,77.7541,595,-0.000824506,595,100.265,595,78.2806,595,-0.000406325,595,99.9963,595,78.1904,595,-0.000680946,595,100.071,595,29.5223,595,27.2271,595,94.0075,595,0.00678155,595,99.8415,595,55.368,595,46.2228,
580,77.7597,580,0.000664849,580,99.9125,580,77.9962,580,-0.000142889,580,100.085,580,78.002,580,-0.000288312,580,100.055,580,41.0312,580,38.5316,580,93.9138,580,0.00833759,580,99.7171,580,41.4131,580,33.436,
565,77.6767,565,-5.55999e-05,565,99.8982,565,77.9208,565,0.000904178,565,100.03,565,77.9466,565,0.000757436,565,100.007,565,54.5869,565,52.6941,565,94.0873,565,0.00793911,565,99.6223,565,25.2661,565,18.6725,
550,77.4005,550,-0.000529916,550,100.229,550,77.8523,550,0.000293619,550,100.074,550,77.8659,550,0.00184117,550,99.9771,550,65.907,550,65.4875,550,94.1563,550,0.00751003,550,99.7645,550,12.6449,550,7.10474,
535,77.6188,535,0.000588543,535,99.8556,535,77.8969,535,-7.45985e-05,535,100.002,535,77.8413,535,0.000599151,535,99.969,535,69.2337,535,69.5446,535,94.4509,535,0.00916165,535,99.7134,535,11.4099,535,6.03442,
520,77.5518,520,6.69314e-05,520,100.24,520,77.9883,520,-0.000193075,520,100.01,520,77.9575,520,0.00113796,520,100.062,520,63.4328,520,63.6513,520,94.8461,520,0.00790592,520,99.7196,520,21.4861,520,15.7023,
505,77.6999,505,-0.000371668,505,99.7796,505,77.8837,505,0.000604056,505,100.084,505,77.8926,505,0.00172812,505,100.024,505,54.1656,505,53.5027,505,95.0139,505,0.00821109,505,99.7479,505,35.156,505,28.9385,
490,77.5891,490,0.000759941,490,100.069,490,78.0041,490,0.00119105,490,100.023,490,77.9993,490,0.00020315,490,100.011,490,45.3166,490,44.1255,490,95.5386,490,0.00929786,490,99.6181,490,46.6231,490,40.1854,
475,77.6356,475,0.000326395,475,100.161,475,77.8667,475,0.000594944,475,100.1,475,77.9632,475,0.000458898,475,99.961,475,38.4995,475,37.0671,475,95.7516,475,0.00765432,475,99.7694,475,54.9317,475,48.2268,
460,77.7021,460,-0.000556986,460,99.8063,460,78.0835,460,-0.000821369,460,99.9581,460,78.0357,460,-7.48254e-06,460,99.9797,460,33.7668,460,32.1434,460,96.1134,460,0.00777589,460,99.6692,460,60.008,460,53.2003,
445,77.602,445,0.000336563,445,100.24,445,77.9842,445,-0.000728572,445,100.056,445,77.9881,445,-0.001135,445,100.034,445,30.791,445,29.2285,445,96.5817,445,0.00764743,445,99.6515,445,62.6323,445,55.905,
430,77.7976,430,-0.00137372,430,99.9157,430,78.0476,430,-0.00137025,430,100.035,430,78.0424,430,-0.00150653,430,100.025,430,29.404,430,27.78,430,96.707,430,0.00805951,430,99.6636,430,63.2684,430,56.8387,
415,77.6038,415,-0.00107305,415,100.07,415,78.1271,415,-0.00120759,415,100.055,415,78.1041,415,-0.00163138,415,99.9198,415,29.283,415,27.7689,415,96.9495,415,0.0058196,415,99.6351,415,61.6308,415,56.0086,
400,77.5193,400,-0.00219612,400,100.088,400,77.7236,400,-0.00123682,400,100.16,400,77.8084,400,-0.00124037,400,100.079,400,30.4894,400,29.0345,400,96.8677,400,0.00592845,400,99.7039,400,57.6619,400,53.2922,
385,77.2026,385,-0.00190467,385,100.062,385,77.8259,385,-0.0016604,385,99.9204,385,77.7139,385,-0.00176171,385,100.051,385,32.1269,385,30.6742,385,96.4609,385,0.00499279,385,99.7093,385,50.5398,385,47.7944,
370,77.0116,370,-0.00106202,370,100.102,370,77.4001,370,-0.00275278,370,100.008,370,77.2897,370,-0.00246946,370,100.028,370,34.6443,370,33.4716,370,96.1398,370,0.00445875,370,99.6187,370,41.98,370,42.2187,
355,76.9533,355,-0.00260498,355,99.8949,355,77.2463,355,-0.00274297,355,100.156,355,77.3667,355,-0.00219591,355,99.8714,355,38.9814,355,37.9398,355,95.5734,355,0.00356889,355,99.6683,355,32.9341,355,33.6781,
340,79.2934,340,-0.00161766,340,100.051,340,79.7356,340,-0.00198244,340,99.9986,340,79.6425,340,-0.00173754,340,99.9958,340,45.9061,340,45.2841,340,105.284,340,0.0022244,340,99.5029,340,20.405,340,20.3843,
325,78.9895,325,-0.00132384,325,100.065,325,79.3275,325,-0.00196008,325,100.082,325,79.2382,325,-0.00234192,325,100.066,325,38.3135,325,38.0132,325,103.225,325,0.00064805,325,99.4992,325,3.3959,325,7.3792,
310,79.0656,310,-0.00123426,310,100.033,310,79.4862,310,-0.000616648,310,100.066,310,79.4057,310,-0.00234575,310,100.058,310,7.89652,310,7.76315,310,102.06,310,-0.000116235,310,99.5185,310,1.44637,310,5.42065,
300,79.3578,300,-0.000937508,300,99.9867,300,79.8115,300,-0.00170333,300,99.9659,300,79.6849,300,-0.00170194,300,99.9735,300,0.66523,300,0.649543,300,101.335,300,0.00139483,300,99.5726,300,4.28878,300,5.38614,

Baseline 100%T,
Baseline 100%T
Collection Time: 5/4/2022 2:08:16 PM
Operator Name  :
Scan Software Version: 3.00(182)
Parameter List :
Instrument                        Cary 500
Instrument Version                8.01
Start (nm)                        1000.000
Stop (nm)                         300.000
X Mode                            Nanometers
Y Mode                            %T
UV-Vis Scan Rate (nm/min)         600.000
UV-Vis Data Interval (nm)         1.000
UV-Vis Ave. Time (sec)            0.100
UV-Vis SBW (nm)                   2.000
Slit Height                       Full
Beam Mode                         Double
Signal-to-noise Mode              Off
UV Source                         On
Vis Source                        On
Third Source                      Off
Source Changeover (nm)            350.00
Detector Changeover (nm)          800.00
Grating Changeover (nm)           800.00
Baseline Correction               On
Baseline Type                     Zero/baseline correction
Baseline File Name
Baseline Std Ref File Name
Cycle Mode                        Off
Comments
Method Log     :
Method Name    : Default
Date/Time stamp: 5/4/2022 2:07:15 PM
Method Modifications:
Y mode Changed: 5/4/2022 2:08:05 PM, Old:Abs, New:%T
Baseline Correction Changed: 5/4/2022 2:08:05 PM, Old:0, New:2
End Method Modifications
<SBW (nm)> , 2.00
<Energy> , 52.48
<Slit height> , Full
<Current Wavelength> , 300.000

Baseline 0%T,
Baseline 0%T
Collection Time: 5/4/2022 2:10:05 PM
Operator Name  :
Scan Software Version: 3.00(182)
Parameter List :
Instrument                        Cary 500
Instrument Version                8.01
Start (nm)                        1000.000
Stop (nm)                         300.000
X Mode                            Nanometers
Y Mode                            %T
UV-Vis Scan Rate (nm/min)         600.000
UV-Vis Data Interval (nm)         1.000
UV-Vis Ave. Time (sec)            0.100
UV-Vis SBW (nm)                   2.000
Slit Height                       Full
Beam Mode                         Double
Signal-to-noise Mode              Off
UV Source                         On
Vis Source                        On
Third Source                      Off
Source Changeover (nm)            350.00
Detector Changeover (nm)          800.00
Grating Changeover (nm)           800.00
Baseline Correction               On
Baseline Type                     Zero/baseline correction
Baseline File Name
Baseline Std Ref File Name
Cycle Mode                        Off
Comments
Method Log     :
Method Name    : Default
Date/Time stamp: 5/4/2022 2:07:15 PM
Method Modifications:
Y mode Changed: 5/4/2022 2:08:05 PM, Old:Abs, New:%T
Baseline Correction Changed: 5/4/2022 2:08:05 PM, Old:0, New:2
End Method Modifications
<SBW (nm)> , 2.00
<Energy> , 52.48
<Slit height> , Full
<Current Wavelength> , 300.000

100T,
100T
Collection Time: 5/4/2022 2:11:57 PM
Operator Name  :
Scan Software Version: 3.00(182)
Parameter List :
Instrument                        Cary 500
Instrument Version                8.01
Start (nm)                        1000.000
Stop (nm)                         300.000
X Mode                            Nanometers
Y Mode                            %T
UV-Vis Scan Rate (nm/min)         600.000
UV-Vis Data Interval (nm)         1.000
UV-Vis Ave. Time (sec)            0.100
UV-Vis SBW (nm)                   2.000
Slit Height                       Full
Beam Mode                         Double
Signal-to-noise Mode              Off
UV Source                         On
Vis Source                        On
Third Source                      Off
Source Changeover (nm)            350.00
Detector Changeover (nm)          800.00
Grating Changeover (nm)           800.00
Baseline Correction               On
Baseline Type                     Zero/baseline correction
Baseline File Name
Baseline Std Ref File Name
Cycle Mode                        Off
Comments
Method Log     :
Method Name    : Default
Date/Time stamp: 5/4/2022 2:07:15 PM
Method Modifications:
Y mode Changed: 5/4/2022 2:08:05 PM, Old:Abs, New:%T
Baseline Correction Changed: 5/4/2022 2:08:05 PM, Old:0, New:2
End Method Modifications
<SBW (nm)> , 2.00
<Energy> , 52.48
<Slit height> , Full
<Current Wavelength> , 300.000

Baseline 100%T,
Baseline 100%T
Collection Time: 5/4/2022 2:14:02 PM
Operator Name  :
Scan Software Version: 3.00(182)
Parameter List :
Instrument                        Cary 500
Instrument Version                8.01
Start (nm)                        1000.000
Stop (nm)                         300.000
X Mode                            Nanometers
Y Mode                            %T
UV-Vis Scan Rate (nm/min)         600.000
UV-Vis Data Interval (nm)         1.000
UV-Vis Ave. Time (sec)            0.100
UV-Vis SBW (nm)                   2.000
Slit Height                       Full
Beam Mode                         Double
Signal-to-noise Mode              Off
UV Source                         On
Vis Source                        On
Third Source                      Off
Source Changeover (nm)            350.00
Detector Changeover (nm)          800.00
Grating Changeover (nm)           800.00
Baseline Correction               On
Baseline Type                     Zero/baseline correction
Baseline File Name
Baseline Std Ref File Name
Cycle Mode                        Off
Comments
Method Log     :
Method Name    : Default
Date/Time stamp: 5/4/2022 2:07:15 PM
Method Modifications:
Y mode Changed: 5/4/2022 2:08:05 PM, Old:Abs, New:%T
Baseline Correction Changed: 5/4/2022 2:08:05 PM, Old:0, New:2
End Method Modifications
<SBW (nm)> , 2.00
<Energy> , 52.48
<Slit height> , Full
<Current Wavelength> , 300.000

Baseline 0%T,
Baseline 0%T
Collection Time: 5/4/2022 2:16:01 PM
Operator Name  :
Scan Software Version: 3.00(182)
Parameter List :
Instrument                        Cary 500
Instrument Version                8.01
Start (nm)                        1000.000
Stop (nm)                         300.000
X Mode                            Nanometers
Y Mode                            %T
UV-Vis Scan Rate (nm/min)         600.000
UV-Vis Data Interval (nm)         1.000
UV-Vis Ave. Time (sec)            0.100
UV-Vis SBW (nm)                   2.000
Slit Height                       Full
Beam Mode                         Double
Signal-to-noise Mode              Off
UV Source                         On
Vis Source                        On
Third Source                      Off
Source Changeover (nm)            350.00
Detector Changeover (nm)          800.00
Grating Changeover (nm)           800.00
Baseline Correction               On
Baseline Type                     Zero/baseline correction
Baseline File Name
Baseline Std Ref File Name
Cycle Mode                        Off
Comments
Method Log     :
Method Name    : Default
Date/Time stamp: 5/4/2022 2:07:15 PM
Method Modifications:
Y mode Changed: 5/4/2022 2:08:05 PM, Old:Abs, New:%T
[...]
Y Mode                            %T
UV-Vis Scan Rate (nm/min)         600.000
UV-Vis Data Interval (nm)         1.000
UV-Vis Ave. Time (sec)            0.100
UV-Vis SBW (nm)                   2.000
Slit Height                       Full
Beam Mode                         Double
Signal-to-noise Mode              Off
UV Source                         On
Vis Source                        On
Third Source                      Off
Source Changeover (nm)            350.00
Detector Changeover (nm)          800.00
Grating Changeover (nm)           800.00
Baseline Correction               On
Baseline Type                     Zero/baseline correction
Baseline File Name
Baseline Std Ref File Name
Cycle Mode                        Off
Comments
Method Log     :
Method Name    : Default
Date/Time stamp: 5/4/2022 2:07:15 PM
Method Modifications:
Y mode Changed: 5/4/2022 2:08:05 PM, Old:Abs, New:%T
Baseline Correction Changed: 5/4/2022 2:08:05 PM, Old:0, New:2
End Method Modifications
<SBW (nm)> , 2.00
<Energy> , 52.48
<Slit height> , Full
<Current Wavelength> , 298.000

Baseline 100%T,
Baseline 100%T
Collection Time: 5/4/2022 2:39:07 PM
Operator Name  :
Scan Software Version: 3.00(182)
Parameter List :
Instrument                        Cary 500
Instrument Version                8.01
Start (nm)                        1000.000
Stop (nm)                         300.000
X Mode                            Nanometers
Y Mode                            %R
UV-Vis Scan Rate (nm/min)         600.000
UV-Vis Data Interval (nm)         1.000
UV-Vis Ave. Time (sec)            0.100
UV-Vis SBW (nm)                   2.000
Slit Height                       Full
Beam Mode                         Double
Signal-to-noise Mode              Off
UV Source                         On
Vis Source                        On
Third Source                      Off
Source Changeover (nm)            350.00
Detector Changeover (nm)          800.00
Grating Changeover (nm)           800.00
Baseline Correction               On
Baseline Type                     Zero SRA correction
Baseline File Name
Baseline Std Ref File Name
Cycle Mode                        Off
Comments
Method Log     :
Method Name    : Default
Date/Time stamp: 5/4/2022 2:07:15 PM
Method Modifications:
Y mode Changed: 5/4/2022 2:08:05 PM, Old:Abs, New:%T
Baseline Correction Changed: 5/4/2022 2:08:05 PM, Old:0, New:2
Y mode Changed: 5/4/2022 2:37:45 PM, Old:%T, New:%R
Baseline Correction Changed: 5/4/2022 2:37:45 PM, Old:2, New:3
End Method Modifications
<SBW (nm)> , 2.00
<Energy> , 87.10
<Slit height> , Full
<Current Wavelength> , 300.000

Baseline 0%T,
Baseline 0%T
Collection Time: 5/4/2022 2:41:13 PM
Operator Name  :
Scan Software Version: 3.00(182)
Parameter List :
Instrument                        Cary 500
Instrument Version                8.01
Start (nm)                        1000.000
Stop (nm)                         300.000
X Mode                            Nanometers
Y Mode                            %R
UV-Vis Scan Rate (nm/min)         600.000
UV-Vis Data Interval (nm)         1.000
UV-Vis Ave. Time (sec)            0.100
UV-Vis SBW (nm)                   2.000
Slit Height                       Full
Beam Mode                         Double
Signal-to-noise Mode              Off
UV Source                         On
Vis Source                        On
Third Source                      Off
Source Changeover (nm)            350.00
Detector Changeover (nm)          800.00
Grating Changeover (nm)           800.00
Baseline Correction               On
Baseline Type                     Zero SRA correction
Baseline File Name
Baseline Std Ref File Name
Cycle Mode                        Off
Comments
Method Log     :
Method Name    : Default
Date/Time stamp: 5/4/2022 2:07:15 PM
Method Modifications:
Y mode Changed: 5/4/2022 2:08:05 PM, Old:Abs, New:%T
Baseline Correction Changed: 5/4/2022 2:08:05 PM, Old:0, New:2
Y mode Changed: 5/4/2022 2:37:45 PM, Old:%T, New:%R
Baseline Correction Changed: 5/4/2022 2:37:45 PM, Old:2, New:3
End Method Modifications
<SBW (nm)> , 2.00
<Energy> , 87.10
<Slit height> , Full
<Current Wavelength> , 300.000

100R,
100R
Collection Time: 5/4/2022 2:43:14 PM
Operator Name  :
Scan Software Version: 3.00(182)
Parameter List :
Instrument                        Cary 500
Instrument Version                8.01
Start (nm)                        1000.000
Stop (nm)                         300.000
X Mode                            Nanometers
Y Mode                            %R
UV-Vis Scan Rate (nm/min)         600.000
UV-Vis Data Interval (nm)         1.000
UV-Vis Ave. Time (sec)            0.100
UV-Vis SBW (nm)                   2.000
Slit Height                       Full
Beam Mode                         Double
Signal-to-noise Mode              Off
UV Source                         On
Vis Source                        On
Third Source                      Off
Source Changeover (nm)            350.00
Detector Changeover (nm)          800.00
Grating Changeover (nm)           800.00
Baseline Correction               On
Baseline Type                     Zero SRA correction
Baseline File Name
Baseline Std Ref File Name
Cycle Mode                        Off
Comments
Method Log     :
Method Name    : Default
Date/Time stamp: 5/4/2022 2:07:15 PM
Method Modifications:
Y mode Changed: 5/4/2022 2:08:05 PM, Old:Abs, New:%T
Baseline Correction Changed: 5/4/2022 2:08:05 PM, Old:0, New:2
Y mode Changed: 5/4/2022 2:37:45 PM, Old:%T, New:%R
Baseline Correction Changed: 5/4/2022 2:37:45 PM, Old:2, New:3
End Method Modifications
<SBW (nm)> , 2.00
<Energy> , 87.10
<Slit height> , Full
<Current Wavelength> , 298.000

sample_R,
sample_R
Collection Time: 5/4/2022 2:46:42 PM
Operator Name  :
Scan Software Version: 3.00(182)
Parameter List :
Instrument                        Cary 500
Instrument Version                8.01
Start (nm)                        1000.000
Stop (nm)                         300.000
X Mode                            Nanometers
Y Mode                            %R
UV-Vis Scan Rate (nm/min)         600.000
UV-Vis Data Interval (nm)         1.000
UV-Vis Ave. Time (sec)            0.100
UV-Vis SBW (nm)                   2.000
Slit Height                       Full
Beam Mode                         Double
Signal-to-noise Mode              Off
UV Source                         On
Vis Source                        On
Third Source                      Off
Source Changeover (nm)            350.00
Detector Changeover (nm)          800.00
Grating Changeover (nm)           800.00
Baseline Correction               On
Baseline Type                     Zero SRA correction
Baseline File Name
Baseline Std Ref File Name
Cycle Mode                        Off
Comments
Method Log     :
Method Name    : Default
Date/Time stamp: 5/4/2022 2:07:15 PM
Method Modifications:
Y mode Changed: 5/4/2022 2:08:05 PM, Old:Abs, New:%T
Baseline Correction Changed: 5/4/2022 2:08:05 PM, Old:0, New:2
Y mode Changed: 5/4/2022 2:37:45 PM, Old:%T, New:%R
Baseline Correction Changed: 5/4/2022 2:37:45 PM, Old:2, New:3
End Method Modifications
<SBW (nm)> , 2.00
<Energy> , 87.10
<Slit height> , Full
<Current Wavelength> , 300.000

sample_bR,
sample_bR
Collection Time: 5/4/2022 2:49:49 PM
Operator Name  :
Scan Software Version: 3.00(182)
Parameter List :
Instrument                        Cary 500
Instrument Version                8.01
Start (nm)                        1000.000
Stop (nm)                         300.000
X Mode                            Nanometers
Y Mode                            %R
UV-Vis Scan Rate (nm/min)         600.000
UV-Vis Data Interval (nm)         1.000
UV-Vis Ave. Time (sec)            0.100
UV-Vis SBW (nm)                   2.000
Slit Height                       Full
Beam Mode                         Double
Signal-to-noise Mode              Off
UV Source                         On
Vis Source                        On
Third Source                      Off
Source Changeover (nm)            350.00
Detector Changeover (nm)          800.00
Grating Changeover (nm)           800.00
Baseline Correction               On
Baseline Type                     Zero SRA correction
Baseline File Name
Baseline Std Ref File Name
Cycle Mode                        Off
Comments
Method Log     :
Method Name    : Default
Date/Time stamp: 5/4/2022 2:07:15 PM
Method Modifications:
Y mode Changed: 5/4/2022 2:08:05 PM, Old:Abs, New:%T
Baseline Correction Changed: 5/4/2022 2:08:05 PM, Old:0, New:2
Y mode Changed: 5/4/2022 2:37:45 PM, Old:%T, New:%R
Baseline Correction Changed: 5/4/2022 2:37:45 PM, Old:2, New:3
End Method Modifications
<SBW (nm)> , 2.00
<Energy> , 87.10
<Slit height> , Full
<Current Wavelength> , 298.000