File: [22-05-04] 22MayE02 MDM (Ag-SiO2-Ag)/FP_bRm.csv
Wavelength (nm),%T
1000,0.793989
997,0.793249
994,0.792799
991,0.792768
988,0.792766
985,0.792525
982,0.792686
979,0.792816
976,0.792163
973,0.791661
970,0.791466
967,0.79119
964,0.790772
961,0.790448
958,0.790259
955,0.789743
952,0.789666
949,0.789459
946,0.788973
943,0.788859
940,0.788407
937,0.787883
934,0.787325
931,0.786975
928,0.78577
925,0.785206
922,0.78414
919,0.78352
916,0.782386
913,0.781124
910,0.780368
907,0.778523
904,0.777294
901,0.775128
898,0.773249
895,0.769708
892,0.766789
889,0.761138
886,0.755827
883,0.746367
880,0.734986
877,0.717905
874,0.718285
871,0.720878
868,0.721857
865,0.725594
862,0.728401
859,0.731559
856,0.732149
853,0.733261
850,0.733365
847,0.73385
844,0.734495
841,0.736875
838,0.738056
835,0.73855
832,0.740075
829,0.740511
826,0.741283
823,0.741898
820,0.742596
817,0.742314
814,0.742552
811,0.74259
808,0.741993
805,0.741345
802,0.740737
799,0.739361
796,0.775816
793,0.777005
790,0.776638
787,0.777012
784,0.776778
781,0.776526
778,0.776382
775,0.776411
772,0.776633
769,0.776152
766,0.776189
763,0.776076
760,0.775502
757,0.775982
754,0.775135
751,0.775323
748,0.774703
745,0.773994
742,0.773042
739,0.772533
736,0.771772
733,0.771246
730,0.770722
727,0.769228
724,0.768479
721,0.767463
718,0.765265
715,0.764764
712,0.763449
709,0.761793
706,0.759962
703,0.757537
700,0.756802
697,0.754905
694,0.751601
691,0.749965
688,0.746932
685,0.744221
682,0.741199
679,0.738146
676,0.73508
673,0.731314
670,0.727478
667,0.723219
664,0.718972
661,0.71441
658,0.709547
655,0.704377
652,0.698567
649,0.692537
646,0.686264
643,0.679277
640,0.671635
637,0.663692
634,0.655223
631,0.645907
628,0.63566
625,0.625042
622,0.613622
619,0.601096
616,0.587914
613,0.573823
610,0.558198
607,0.541161
604,0.523955
601,0.504756
598,0.484675
595,0.462961
592,0.43976
589,0.415391
586,0.390104
583,0.363112
580,0.335309
577,0.306412
574,0.276739
571,0.246634
568,0.216804
565,0.187433
562,0.158771
559,0.132299
556,0.108484
553,0.0877215
550,0.0712151
547,0.0587489
544,0.05177487
541,0.0492376
538,0.05251969
535,0.0605176
532,0.0732207
529,0.0896176
526,0.109642
523,0.132596
520,0.157464
517,0.183581
514,0.210183
511,0.237315
508,0.264039
505,0.290116
502,0.315342
499,0.339419
496,0.361913
493,0.383387
490,0.403394
487,0.422098
484,0.439263
481,0.455335
478,0.470011
475,0.483383
472,0.495624
469,0.50705
466,0.517017
463,0.525961
460,0.533769
457,0.541821
454,0.546719
451,0.553258
448,0.557378
445,0.561005
442,0.563575
439,0.566172
436,0.568327
433,0.569363
430,0.570305
427,0.569802
424,0.568903
421,0.56749
418,0.565135
415,0.562137
412,0.558348
409,0.554241
406,0.548225
403,0.542138
400,0.534504
397,0.525859
394,0.516221
391,0.505043
388,0.492747
385,0.479337
382,0.465521
379,0.454447
376,0.445125
373,0.435144
370,0.423803
367,0.409719
364,0.394481
361,0.377433
358,0.358591
355,0.337902
352,0.315245
349,0.2899
346,0.269481
343,0.23795
340,0.204861
337,0.1712261
334,0.139192
331,0.111364
328,0.089321
325,0.0741634
322,0.06523448
319,0.0604664
316,0.057631
313,0.0558189
310,0.0544687
307,0.0537631
304,0.0533054
301,0.0540518
300,0.0540926