File: [22-05-04] 22MayE02 MDM (Ag-SiO2-Ag)/FP_Rm.csv
Wavelength (nm),%T
1000,0.965278
997,0.965074
994,0.9645
991,0.964208
988,0.96466
985,0.964248
982,0.964374
979,0.963926
976,0.963846
973,0.96337
970,0.962803
967,0.962665
964,0.962822
961,0.962181
958,0.961946
955,0.96202
952,0.961689
949,0.961169
946,0.961368
943,0.960921
940,0.960766
937,0.960305
934,0.96026
931,0.960105
928,0.959562
925,0.959203
922,0.958496
919,0.95829
916,0.957944
913,0.957497
910,0.957325
907,0.956966
904,0.956335
901,0.955797
898,0.955614
895,0.955319
892,0.954721
889,0.953706
886,0.953567
883,0.952718
880,0.950865
877,0.949251
874,0.947792
871,0.944871
868,0.942595
865,0.939488
862,0.936537
859,0.930711
856,0.929374
853,0.928949
850,0.928611
847,0.925202
844,0.924782
841,0.926123
838,0.925258
835,0.92409
832,0.923993
829,0.923259
826,0.92258
823,0.921782
820,0.92134
817,0.920771
814,0.920183
811,0.919245
808,0.919221
805,0.918821
802,0.917987
799,0.917633
796,0.932102
793,0.931135
790,0.92976
787,0.92959
784,0.928644
781,0.927733
778,0.926459
775,0.9259
772,0.925089
769,0.923721
766,0.922558
763,0.921713
760,0.919758
757,0.918884
754,0.917701
751,0.916217
748,0.914839
745,0.91361
742,0.911925
739,0.910381
736,0.908857
733,0.907425
730,0.906004
727,0.90425
724,0.901752
721,0.899621
718,0.897638
715,0.895312
712,0.892826
709,0.890677
706,0.888147
703,0.885782
700,0.883314
697,0.880768
694,0.877606
691,0.874224
688,0.871057
685,0.867523
682,0.863836
679,0.85951
676,0.855663
673,0.851247
670,0.846563
667,0.84166
664,0.83674
661,0.831249
658,0.825777
655,0.819402
652,0.812977
649,0.806337
646,0.798696
643,0.790757
640,0.782297
637,0.7732266
634,0.763324
631,0.752698
628,0.741817
625,0.730336
622,0.717797
619,0.704347
616,0.689959
613,0.674555
610,0.657394
607,0.639642
604,0.620806
601,0.599839
598,0.577879
595,0.554558
592,0.528698
589,0.502423
586,0.474864
583,0.445682
580,0.415306
577,0.384006
574,0.35159
571,0.318711
568,0.285874
565,0.253619
562,0.222324
559,0.193488
556,0.167376
553,0.144862
550,0.126747
547,0.113273
544,0.105511
541,0.102818
538,0.105927
535,0.114427
532,0.127494
529,0.145069
526,0.165818
523,0.189742
520,0.215465
517,0.242483
514,0.269992
511,0.297829
508,0.325598
505,0.352449
502,0.378213
499,0.402636
496,0.425612
493,0.447514
490,0.468019
487,0.487147
484,0.504653
481,0.520899
478,0.535885
475,0.550587
472,0.562952
469,0.574719
466,0.584663
463,0.59401
460,0.602072
457,0.609545
454,0.615414
451,0.620847
448,0.62498
445,0.628513
442,0.631217
439,0.633282
436,0.634525
433,0.635072
430,0.63482
427,0.633288
424,0.630775
421,0.627796
418,0.623567
415,0.618565
412,0.61289
409,0.605957
406,0.598066
403,0.5887
400,0.578332
397,0.566966
394,0.553199
391,0.539385
388,0.523597
385,0.506871
382,0.490099
379,0.472659
376,0.455355
373,0.438493
370,0.421407
367,0.404408
364,0.387372
361,0.369734
358,0.35015
355,0.330437
352,0.309358
349,0.28753
346,0.263922
343,0.236256
340,0.205069
337,0.169955
334,0.133021
331,0.0960081
328,0.0616409
325,0.03412989
322,0.014098
319,0
316,0
313,0.00352209
310,0.0145337
307,0.0230296
304,0.0318415
301,0.04035244
300,0.0430719