File: [22-05-04] 22MayE02 MDM (Ag-SiO2-Ag)/FP_Tm.csv
Wavelength (nm),%T
1000,0.00430701
997,0.004424722
994,0.00445278
991,0.004457867
988,0.004541556
985,0.004676437
982,0.004633869
979,0.004720018
976,0.004771254
973,0.004859624
970,0.005012166
967,0.005067586
964,0.005128792
961,0.005258166
958,0.005226312
955,0.005337994
952,0.005406681
949,0.005514332
946,0.005572238
943,0.005745052
940,0.005781806
937,0.005851667
934,0.00599634
931,0.00605415
928,0.006196413
925,0.006394022
922,0.00640567
919,0.006449457
916,0.006594447
913,0.006704257
910,0.006782113
907,0.006958812
904,0.007082056
901,0.007186887
898,0.0074983
895,0.007481491
892,0.007670029
889,0.007819493
886,0.007960717
883,0.008118868
880,0.008224683
877,0.008345688
874,0.008552851
871,0.008636567
868,0.008912504
865,0.0090663
862,0.009187139
859,0.009487754
856,0.009686066
853,0.009777272
850,0.0100887
847,0.010255
844,0.0104475
841,0.0107161
838,0.0109244
835,0.0112634
832,0.0115137
829,0.0117798
826,0.0119836
823,0.0123664
820,0.0126751
817,0.0128752
814,0.013178
811,0.0135435
808,0.0137466
805,0.01421853
802,0.0145119
799,0.0149562
796,0.0149528
793,0.015286
790,0.0157901
787,0.01613327
784,0.0166285
781,0.0170166
778,0.0174763
775,0.0179812
772,0.0184922
769,0.0190032
766,0.019611
763,0.0202027
760,0.0208041
757,0.0213987
754,0.0220854
751,0.02275251
748,0.0234927
745,0.0242293
742,0.0250295
739,0.0258357
736,0.0267054
733,0.0275564
730,0.0285598
727,0.0295524
724,0.0306369
721,0.0317406
718,0.0329372
715,0.0341402
712,0.0353369
709,0.0367278
706,0.0381455
703,0.03958259
700,0.0411728
697,0.04290278
694,0.0447826
691,0.0465765
688,0.0485403
685,0.0506464
682,0.0529267
679,0.0553016
676,0.0578315
673,0.0605424
670,0.0634276
667,0.0663936
664,0.0696011
661,0.0730914
658,0.0767958
655,0.08078457
652,0.0851658
649,0.0897033
646,0.0946381
643,0.0999045
640,0.105513
637,0.111703
634,0.118228
631,0.125364
628,0.133026
625,0.141293
622,0.150303
619,0.159994
616,0.170553
613,0.181693
610,0.193648
607,0.206978
604,0.221605
601,0.237031
598,0.2542081
595,0.272078
592,0.29156
589,0.312726
586,0.335271
583,0.35894
580,0.385105
577,0.412153
574,0.440407
571,0.468914
568,0.497717
565,0.526907
562,0.556226
559,0.584211
556,0.610132
553,0.633964
550,0.655025
547,0.671756
544,0.684399
541,0.692516
538,0.696101
535,0.695662
532,0.690395
529,0.681031
526,0.669634
523,0.653551
520,0.636118
517,0.617419
514,0.597307
511,0.576711
508,0.555897
505,0.534901
502,0.514659
499,0.494276
496,0.475932
493,0.458213
490,0.441205
487,0.425535
484,0.410346
481,0.396522
478,0.383106
475,0.370816
472,0.358488
469,0.348279
466,0.338445
463,0.329363
460,0.321499
457,0.314195
454,0.307705
451,0.301843
448,0.296753
445,0.292184
442,0.288293
439,0.284905
436,0.282007
433,0.279478
430,0.277731
427,0.276741
424,0.276153
421,0.275994
418,0.276138
415,0.277912
412,0.279379
409,0.281275
406,0.28379
403,0.287024
400,0.290115
397,0.29348
394,0.296971
391,0.300522
388,0.303401
385,0.306586
382,0.310296
379,0.315366
376,0.32125
373,0.327917
370,0.334622
367,0.341635
364,0.349567
361,0.358122
358,0.369088
355,0.379886
352,0.392621
349,0.406685
346,0.422926
343,0.439063
340,0.452861
337,0.461259
334,0.461901
331,0.450517
328,0.42272
325,0.379881
322,0.323369
319,0.256546
316,0.189289
313,0.127786
310,0.0775866
307,0.0422379
304,0.0203844
301,0.00879354
300,0.00649715